File: Input XRD/2_Ti35.csv
Angle,Intensity
10.0042,17
10.4721,26
10.94,16
11.4079,17
11.8758,21
12.3438,16
12.8117,29
13.2796,22
13.7475,17
14.2154,18
14.6833,27
15.1512,20
15.6192,23
16.0871,18
16.555,27
17.0229,17
17.4908,31
17.9587,26
18.4267,33
18.8946,24
19.3625,26
19.8304,31
20.2983,24
20.7662,17
21.2342,9
21.7021,21
22.17,29
22.6379,18
23.1058,21
23.5737,17
24.0416,13
24.5096,18
24.9775,14
25.4454,20
25.9133,11
26.3812,14
26.8491,11
27.3171,16
27.785,16
28.2529,10
28.7208,20
29.1887,20
29.6566,15
30.1245,16
30.5925,16
31.0604,9
31.5283,16
31.9962,18
32.4641,7
32.932,22
33.4,15
33.8679,15
34.3358,15
34.8037,9
35.2716,73
35.7395,18
36.2074,15
36.6754,16
37.1433,14
37.6112,9
38.0791,18
38.547,16
39.0149,24
39.4829,29
39.9508,26
40.4187,33
40.8866,11
41.3545,11
41.8224,9
42.2903,7
42.7583,7
43.2262,13
43.6941,11
44.162,11
44.6299,10
45.0978,11
45.5658,11
46.0337,10
46.5016,20
46.9695,14
47.4374,8
47.9053,7
48.3733,13
48.8412,17
49.3091,5
49.777,11
50.2449,14
50.7128,10
51.1807,14
51.6487,7
52.1166,8
52.5845,10
53.0524,91
53.5203,9
53.9882,9
54.4562,11
54.9241,15
55.392,10
55.8599,9
56.3278,8
56.7957,7
57.2636,4
57.7316,13
58.1995,10
58.6674,7
59.1353,9
59.6032,13
60.0711,10
60.5391,8
61.007,10
61.4749,7
61.9428,11
62.4107,9
62.8786,10
63.3465,10
63.8145,1
64.2824,11
64.7503,9
65.2182,11
65.6861,10
66.154,14
66.622,13
67.0899,15
67.5578,15
68.0257,14
68.4936,9
68.9615,14
69.4295,10
69.8974,8
70.3653,14
70.8332,62
71.3011,10
71.769,7
72.2369,11
72.7049,18
73.1728,4
73.6407,10
74.1086,16
74.5765,13
75.0444,18
75.5124,9
75.9803,16
76.4482,157
76.9161,22
77.384,15
77.8519,33
78.3198,15
78.7878,4
79.2557,16
79.7236,20
80.1915,8
80.6594,9
81.1273,10
81.5953,16
82.0632,17
82.5311,11
82.999,13
83.4669,8
83.9348,10
84.4027,8
84.8707,9
85.3386,10
85.8065,13
86.2744,14
86.7423,7
87.2102,10
87.6782,11
88.1461,15
88.614,17
89.0819,8
89.5498,9
90.0177,16
90.4856,9
90.9536,9
91.4215,8
91.8894,8
92.3573,8
92.8252,28
93.2931,11
93.7611,20
94.229,14
94.6969,10
95.1648,13
95.6327,8
96.1006,11
96.5686,8
97.0365,4
97.5044,15
97.9723,14
98.4402,7
98.9081,14
99.376,4
99.844,14
100.312,4
100.78,15
101.248,11
101.716,8
102.184,4
102.651,9
103.119,17
103.587,15
104.055,15
104.523,8
104.991,13
105.459,8
105.927,9
106.395,9
106.863,11
107.331,8
107.799,13
108.266,11
108.734,17
109.202,9
109.67,30
110.138,18
110.606,9
111.074,8
111.542,13
112.01,14
112.478,17
112.946,11
113.414,10
113.881,8
114.349,10
114.817,9
115.285,7
115.753,10
116.221,8
116.689,16
117.157,10
117.625,16
118.093,13
118.561,16
119.028,13
119.496,5
119.964,13
120.432,10
120.9,9
121.368,8
121.836,10
122.304,45
122.772,22
123.24,16
123.708,17
124.176,13
124.643,16
125.111,16
125.579,9
126.047,10
126.515,9
126.983,17
127.451,16
127.919,10
128.387,9
128.855,8
129.323,9
129.791,18
130.258,21
130.726,16
131.194,16
131.662,17
132.13,14
132.598,13
133.066,15
133.534,15
134.002,5
134.47,14
134.938,13
135.406,15
135.873,15
136.341,21
136.809,4
137.277,10
137.745,14
138.213,10
138.681,15
139.149,8
139.617,15
140.085,45
140.553,40
141.021,28
141.488,18
141.956,10
142.424,16
142.892,16
143.36,20
143.828,16
144.296,21
144.764,18
145.232,23
145.7,17
146.168,10
146.636,15
147.103,21
147.571,14
148.039,17
148.507,10
148.975,17
149.443,18
149.911,13
150.003,14