File: Input XRD/3_Ti666.csv
Angle,Intensity
10.0021,86
10.47,70
10.9379,78
11.4058,68
11.8738,66
12.3417,67
12.8096,77
13.2775,65
13.7454,73
14.2133,72
14.6812,78
15.1492,73
15.6171,61
16.085,80
16.5529,56
17.0208,65
17.4887,65
17.9567,67
18.4246,55
18.8925,65
19.3604,42
19.8283,57
20.2962,53
20.7641,51
21.2321,43
21.7,48
22.1679,37
22.6358,57
23.1037,52
23.5716,50
24.0396,57
24.5075,57
24.9754,48
25.4433,57
25.9112,39
26.3791,54
26.847,36
27.315,48
27.7829,42
28.2508,44
28.7187,55
29.1866,49
29.6545,45
30.1225,49
30.5904,45
31.0583,46
31.5262,55
31.9941,38
32.462,44
32.9299,57
33.3979,33
33.8658,40
34.3337,53
34.8016,73
35.2695,75
35.7374,63
36.2054,39
36.6733,36
37.1412,45
37.6091,52
38.077,52
38.5449,51
39.0129,61
39.4808,55
39.9487,792
40.4166,91
40.8845,102
41.3524,68
41.8203,53
42.2883,42
42.7562,46
43.2241,51
43.692,45
44.1599,42
44.6278,49
45.0958,51
45.5637,43
46.0316,55
46.4995,28
46.9674,38
47.4353,45
47.9032,40
48.3712,43
48.8391,43
49.307,32
49.7749,44
50.2428,40
50.7107,39
51.1787,42
51.6466,36
52.1145,48
52.5824,43
53.0503,53
53.5182,32
53.9861,48
54.4541,40
54.922,37
55.3899,49
55.8578,44
56.3257,42
56.7936,48
57.2616,45
57.7295,44
58.1974,29
58.6653,50
59.1332,40
59.6011,42
60.0691,44
60.537,34
61.0049,44
61.4728,38
61.9407,32
62.4086,53
62.8765,65
63.3445,36
63.8124,44
64.2803,36
64.7482,40
65.2161,37
65.684,49
66.152,45
66.6199,51
67.0878,38
67.5557,46
68.0236,42
68.4915,44
68.9594,34
69.4274,38
69.8953,56
70.3632,52
70.8311,50
71.299,31
71.7669,67
72.2349,37
72.7028,40
73.1707,39
73.6386,45
74.1065,44
74.5744,48
75.0423,34
75.5103,39
75.9782,148
76.4461,51
76.914,115
77.3819,412
77.8498,56
78.3178,31
78.7857,48
79.2536,45
79.7215,42
80.1894,45
80.6573,52
81.1252,48
81.5932,45
82.0611,41
82.529,42
82.9969,40
83.4648,41
83.9327,43
84.4007,48
84.8686,28
85.3365,46
85.8044,32
86.2723,44
86.7402,53
87.2082,44
87.6761,44
88.144,48
88.6119,41
89.0798,33
89.5477,40
90.0156,43
90.4836,24
90.9515,34
91.4194,52
91.8873,33
92.3552,44
92.8231,41
93.2911,46
93.759,43
94.2269,50
94.6948,30
95.1627,49
95.6306,39
96.0985,40
96.5665,40
97.0344,48
97.5023,36
97.9702,41
98.4381,53
98.906,34
99.374,44
99.8419,58
100.31,46
100.778,41
101.246,41
101.714,50
102.181,86
102.649,49
103.117,62
103.585,40
104.053,28
104.521,39
104.989,30
105.457,56
105.925,50
106.393,45
106.861,48
107.329,37
107.796,52
108.264,43
108.732,64
109.2,49
109.668,31
110.136,32
110.604,52
111.072,39
111.54,38
112.008,31
112.476,36
112.944,36
113.411,41
113.879,42
114.347,41
114.815,42
115.283,48
115.751,32
116.219,57
116.687,36
117.155,45
117.623,45
118.091,51
118.558,37
119.026,69
119.494,66
119.962,44
120.43,54
120.898,39
121.366,43
121.834,55
122.302,53
122.77,32
123.238,52
123.706,48
124.173,49
124.641,49
125.109,56
125.577,38
126.045,55
126.513,51
126.981,45
127.449,49
127.917,45
128.385,40
128.853,52
129.321,41
129.788,54
130.256,33
130.724,44
131.192,48
131.66,52
132.128,32
132.596,55
133.064,34
133.532,42
134,38
134.468,39
134.936,33
135.403,52
135.871,55
136.339,49
136.807,48
137.275,37
137.743,42
138.211,50
138.679,120
139.147,93
139.615,91
140.083,68
140.551,42
141.018,33
141.486,46
141.954,53
142.422,53
142.89,34
143.358,46
143.826,54
144.294,43
144.762,51
145.23,45
145.698,50
146.166,51
146.633,48
147.101,69
147.569,184
148.037,247
148.505,133
148.973,180
149.441,85
149.909,55
150.005,52