File: Input XRD/4_TC11-C.csv
Angle,Intensity
10.0021,88
10.47,103
10.9379,85
11.4058,82
11.8738,72
12.3417,89
12.8096,82
13.2775,63
13.7454,66
14.2133,97
14.6812,85
15.1492,88
15.6171,84
16.085,100
16.5529,77
17.0208,86
17.4887,78
17.9567,99
18.4246,90
18.8925,82
19.3604,93
19.8283,99
20.2962,79
20.7641,96
21.2321,79
21.7,97
22.1679,93
22.6358,77
23.1037,87
23.5716,70
24.0396,78
24.5075,60
24.9754,75
25.4433,55
25.9112,66
26.3791,65
26.847,72
27.315,49
27.7829,63
28.2508,53
28.7187,58
29.1866,55
29.6545,43
30.1225,42
30.5904,61
31.0583,44
31.5262,67
31.9941,46
32.462,52
32.9299,49
33.3979,63
33.8658,56
34.3337,62
34.8016,180
35.2695,102
35.7374,62
36.2054,73
36.6733,61
37.1412,52
37.6091,54
38.077,66
38.5449,48
39.0129,78
39.4808,61
39.9487,124
40.4166,50
40.8845,63
41.3524,33
41.8203,49
42.2883,63
42.7562,55
43.2241,50
43.692,41
44.1599,49
44.6278,61
45.0958,54
45.5637,52
46.0316,45
46.4995,45
46.9674,48
47.4353,45
47.9032,60
48.3712,41
48.8391,43
49.307,49
49.7749,57
50.2428,44
50.7107,51
51.1787,54
51.6466,38
52.1145,53
52.5824,93
53.0503,407
53.5182,32
53.9861,50
54.4541,56
54.922,40
55.3899,45
55.8578,37
56.3257,34
56.7936,43
57.2616,46
57.7295,52
58.1974,55
58.6653,41
59.1332,30
59.6011,45
60.0691,45
60.537,43
61.0049,54
61.4728,60
61.9407,52
62.4086,49
62.8765,50
63.3445,50
63.8124,25
64.2803,44
64.7482,41
65.2161,37
65.684,39
66.152,39
66.6199,32
67.0878,36
67.5557,48
68.0236,50
68.4915,44
68.9594,53
69.4274,67
69.8953,97
70.3632,711
70.8311,213
71.299,65
71.7669,55
72.2349,46
72.7028,39
73.1707,52
73.6386,53
74.1065,69
74.5744,81
75.0423,61
75.5103,66
75.9782,158
76.4461,225
76.914,66
77.3819,204
77.8498,66
78.3178,51
78.7857,39
79.2536,42
79.7215,43
80.1894,49
80.6573,31
81.1252,36
81.5932,26
82.0611,43
82.529,48
82.9969,43
83.4648,51
83.9327,38
84.4007,39
84.8686,37
85.3365,38
85.8044,53
86.2723,43
86.7402,37
87.2082,44
87.6761,52
88.144,54
88.6119,44
89.0798,39
89.5477,30
90.0156,43
90.4836,40
90.9515,45
91.4194,46
91.8873,55
92.3552,182
92.8231,117
93.2911,49
93.759,50
94.2269,42
94.6948,37
95.1627,32
95.6306,38
96.0985,36
96.5665,33
97.0344,48
97.5023,48
97.9702,55
98.4381,43
98.906,43
99.374,44
99.8419,42
100.31,43
100.778,54
101.246,43
101.714,34
102.181,53
102.649,40
103.117,42
103.585,48
104.053,42
104.521,40
104.989,46
105.457,45
105.925,44
106.393,55
106.861,53
107.329,50
107.796,50
108.264,56
108.732,63
109.2,84
109.668,100
110.136,57
110.604,68
111.072,46
111.54,43
112.008,48
112.476,48
112.944,38
113.411,40
113.879,49
114.347,58
114.815,43
115.283,50
115.751,50
116.219,31
116.687,48
117.155,54
117.623,56
118.091,56
118.558,40
119.026,57
119.494,82
119.962,69
120.43,58
120.898,37
121.366,50
121.834,69
122.302,61
122.77,43
123.238,55
123.706,53
124.173,51
124.641,45
125.109,61
125.577,50
126.045,67
126.513,49
126.981,61
127.449,45
127.917,56
128.385,51
128.853,45
129.321,55
129.788,76
130.256,104
130.724,75
131.192,57
131.66,56
132.128,41
132.596,45
133.064,42
133.532,41
134,55
134.468,42
134.936,39
135.403,40
135.871,53
136.339,61
136.807,45
137.275,48
137.743,61
138.211,58
138.679,55
139.147,70
139.615,114
140.083,97
140.551,96
141.018,80
141.486,54
141.954,57
142.422,48
142.89,37
143.358,33
143.826,49
144.294,57
144.762,48
145.23,61
145.698,53
146.166,46
146.633,55
147.101,48
147.569,44
148.037,64
148.505,62
148.973,65
149.441,68
149.909,61
150.005,57